{NUMBER OF COLUMNS}       3
*       PSIn        Density         Te
*                    (m-3)         (eV)
{DATA LIST}
    0.650916    2.23E+19      307.69
    0.655308    2.23E+19      307.61
    0.663765    2.22E+19      306.28
    0.664014    2.20E+19      299.59
    0.667624    2.19E+19      294.01
    0.669952    2.19E+19      292.21
    0.670851    2.18E+19      289.67
    0.671433    2.18E+19      296.05
    0.675752    2.17E+19      293.45
    0.676206    2.16E+19      289.08
    0.676284    2.15E+19      281.79
    0.676361    2.15E+19      280.90
    0.677262    2.15E+19      279.30
    0.679673    2.14E+19      275.92
    0.680016    2.12E+19      272.00
    0.680917    2.12E+19      271.98
    0.683890    2.12E+19      267.56
    0.684575    2.13E+19      263.67
    0.688234    2.11E+19      255.42
    0.690613    2.09E+19      247.89
    0.691547    2.09E+19      245.27
    0.691636    2.10E+19      248.26
    0.695994    2.10E+19      245.54
    0.703792    2.11E+19      243.83
    0.704934    2.11E+19      241.87
    0.708639    2.11E+19      243.79
    0.711069    2.10E+19      243.10
    0.711613    2.11E+19      239.10
    0.711884    2.11E+19      233.70
    0.711951    2.11E+19      231.75
    0.712017    2.10E+19      232.32
    0.712039    2.09E+19      235.64
    0.712831    2.07E+19      233.51
    0.715111    2.06E+19      230.09
    0.715345    2.07E+19      227.34
    0.715902    2.06E+19      226.01
    0.716070    2.06E+19      221.44
    0.723022    2.04E+19      215.22
    0.724573    2.01E+19      208.67
    0.728165    2.01E+19      208.09
    0.730522    2.00E+19      205.74
    0.730573    2.02E+19      212.08
    0.731469    1.99E+19      207.50
    0.734816    1.99E+19      206.68
    0.741573    1.99E+19      207.86
    0.743599    1.98E+19      206.63
    0.747236    1.97E+19      202.68
    0.747660    1.98E+19      204.33
    0.747672    1.97E+19      204.54
    0.747849    1.96E+19      203.13
    0.748464    1.96E+19      200.76
    0.749194    1.97E+19      198.42
    0.749646    1.95E+19      194.13
    0.750615    1.97E+19      192.89
    0.750631    1.96E+19      189.52
    0.750772    1.96E+19      189.26
    0.751321    1.95E+19      188.77
    0.753473    1.95E+19      186.22
    0.759844    1.94E+19      184.15
    0.762366    1.93E+19      184.08
    0.766047    1.92E+19      182.44
    0.767533    1.93E+19      185.79
    0.768510    1.89E+19      179.80
    0.769516    1.89E+19      177.40
    0.771733    1.88E+19      176.31
    0.777375    1.85E+19      173.01
    0.780249    1.86E+19      173.64
    0.783773    1.87E+19      172.16
    0.784201    1.86E+19      171.01
    0.784271    1.86E+19      166.85
    0.784514    1.84E+19      163.95
    0.784695    1.84E+19      162.21
    0.784947    1.84E+19      161.51
    0.786126    1.84E+19      159.56
    0.786985    1.82E+19      156.37
    0.787079    1.82E+19      155.83
    0.787107    1.81E+19      154.83
    0.787510    1.82E+19      153.61
    0.788797    1.83E+19      151.71
    0.794034    1.84E+19      153.42
    0.797418    1.85E+19      154.34
    0.800983    1.84E+19      153.28
    0.801416    1.82E+19      147.24
    0.803387    1.84E+19      146.64
    0.804406    1.82E+19      145.04
    0.805551    1.81E+19      144.66
    0.810359    1.82E+19      145.78
    0.814275    1.79E+19      142.45
    0.817802    1.78E+19      141.69
    0.817878    1.75E+19      139.06
    0.820332    1.74E+19      140.45
    0.820997    1.75E+19      139.59
    0.821158    1.75E+19      138.43
    0.821387    1.74E+19      134.07
    0.821425    1.74E+19      133.32
    0.821685    1.75E+19      132.02
    0.821965    1.75E+19      131.05
    0.823567    1.73E+19      129.41
    0.823583    1.73E+19      127.09
    0.823820    1.71E+19      127.26
    0.826107    1.71E+19      127.74
    0.830279    1.71E+19      126.72
    0.833093    1.71E+19      127.62
    0.833683    1.73E+19      129.31
    0.835996    1.72E+19      130.73
    0.836993    1.72E+19      128.55
    0.836994    1.72E+19      126.62
    0.840625    1.70E+19      123.64
    0.845332    1.69E+19      124.81
    0.847663    1.69E+19      124.66
    0.848774    1.70E+19      123.24
    0.851133    1.67E+19      118.18
    0.851590    1.64E+19      115.62
    0.852167    1.64E+19      115.30
    0.854757    1.62E+19      115.39
    0.857862    1.62E+19      114.53
    0.858081    1.59E+19      115.24
    0.858407    1.59E+19      115.64
    0.858493    1.58E+19      114.38
    0.860021    1.57E+19      115.21
    0.860124    1.57E+19      114.37
    0.860201    1.57E+19      114.12
    0.860217    1.56E+19      113.16
    0.861845    1.56E+19      112.53
    0.863499    1.54E+19      113.69
    0.865798    1.53E+19      109.84
    0.865904    1.52E+19      112.37
    0.866972    1.54E+19      114.14
    0.868474    1.54E+19      115.29
    0.874205    1.54E+19      115.06
    0.875374    1.53E+19      115.35
    0.877444    1.53E+19      115.58
    0.879020    1.56E+19      118.68
    0.879678    1.56E+19      117.29
    0.880672    1.52E+19      113.18
    0.881025    1.50E+19      111.55
    0.886961    1.48E+19      108.62
    0.887620    1.44E+19      105.10
    0.890232    1.43E+19      101.19
    0.891288    1.39E+19       98.55
    0.892507    1.39E+19       96.42
    0.892795    1.38E+19       95.76
    0.893533    1.37E+19       93.52
    0.894804    1.37E+19       92.65
    0.895113    1.36E+19       91.96
    0.895373    1.36E+19       90.02
    0.895496    1.36E+19       90.46
    0.896683    1.36E+19       87.95
    0.896748    1.35E+19       86.51
    0.896947    1.35E+19       85.91
    0.899308    1.35E+19       84.48
    0.899433    1.35E+19       82.60
    0.902610    1.35E+19       82.42
    0.903121    1.34E+19       80.81
    0.904106    1.35E+19       81.61
    0.904925    1.37E+19       82.91
    0.905981    1.38E+19       82.80
    0.910784    1.37E+19       83.88
    0.911217    1.40E+19       84.41
    0.914493    1.40E+19       85.86
    0.914548    1.43E+19       87.14
    0.914929    1.43E+19       86.06
    0.916902    1.41E+19       82.85
    0.917990    1.37E+19       79.26
    0.921325    1.36E+19       80.12
    0.922273    1.33E+19       76.89
    0.924589    1.31E+19       72.71
    0.924687    1.29E+19       68.57
    0.925330    1.28E+19       69.71
    0.927481    1.26E+19       67.22
    0.928476    1.23E+19       64.52
    0.930690    1.22E+19       64.85
    0.931779    1.22E+19       64.94
    0.932180    1.21E+19       64.63
    0.932189    1.20E+19       64.10
    0.932287    1.19E+19       63.37
    0.932619    1.18E+19       64.51
    0.933200    1.17E+19       64.57
    0.933426    1.17E+19       64.46
    0.933439    1.16E+19       64.44
    0.933712    1.15E+19       64.53
    0.934068    1.15E+19       64.45
    0.935270    1.14E+19       63.03
    0.937455    1.14E+19       65.73
    0.938476    1.17E+19       67.62
    0.939559    1.17E+19       66.41
    0.941630    1.18E+19       68.20
    0.941739    1.20E+19       71.28
    0.942953    1.21E+19       73.22
    0.944736    1.20E+19       71.68
    0.946953    1.22E+19       73.24
    0.947901    1.24E+19       74.72
    0.947999    1.24E+19       74.18
    0.949501    1.24E+19       73.01
    0.950571    1.24E+19       71.86
    0.951310    1.24E+19       71.72
    0.953699    1.23E+19       71.43
    0.955691    1.23E+19       69.70
    0.955946    1.22E+19       68.96
    0.956679    1.22E+19       67.95
    0.957015    1.21E+19       67.46
    0.958984    1.21E+19       66.03
    0.959112    1.18E+19       63.19
    0.961905    1.18E+19       63.68
    0.962525    1.14E+19       60.08
    0.962856    1.11E+19       57.64
    0.963920    1.08E+19       54.91
    0.964883    1.07E+19       52.77
    0.965564    1.04E+19       49.51
    0.966072    1.04E+19       49.30
    0.968126    1.04E+19       47.97
    0.968391    1.04E+19       47.53
    0.968466    1.03E+19       47.24
    0.968914    1.03E+19       46.50
    0.968956    1.03E+19       46.93
    0.969421    1.02E+19       46.86
    0.969452    1.03E+19       46.56
    0.969801    1.03E+19       47.79
    0.970180    1.02E+19       47.56
    0.970954    1.02E+19       46.94
    0.971440    1.02E+19       45.53
    0.971935    1.02E+19       44.74
    0.972540    1.02E+19       44.91
    0.972793    1.03E+19       46.20
    0.973680    1.03E+19       46.24
    0.975396    1.06E+19       48.39
    0.976739    1.10E+19       50.83
    0.976826    1.10E+19       51.71
    0.977458    1.10E+19       52.54
    0.978364    1.12E+19       53.66
    0.978454    1.12E+19       53.92
    0.978458    1.11E+19       54.17
    0.980196    1.11E+19       53.58
    0.981325    1.10E+19       52.91
    0.981432    1.10E+19       52.19
    0.982412    1.09E+19       51.37
    0.982868    1.08E+19       50.99
    0.983407    1.07E+19       50.60
    0.983787    1.06E+19       48.15
    0.984422    1.08E+19       48.05
    0.984812    1.07E+19       47.76
    0.985487    1.06E+19       48.37
    0.985793    1.05E+19       47.82
    0.986671    1.04E+19       47.10
    0.988476    1.04E+19       46.68
    0.988509    1.04E+19       45.03
    0.988773    1.03E+19       44.14
    0.988873    1.02E+19       42.97
    0.989801    1.03E+19       42.14
    0.990426    1.03E+19       41.15
    0.991405    1.03E+19       41.10
    0.991560    1.01E+19       39.68
    0.992590    1.01E+19       38.57
    0.993514    9.99E+18       37.72
    0.993523    9.95E+18       36.93
    0.994565    9.93E+18       35.55
    0.995497    1.00E+19       34.09
    0.995998    1.00E+19       33.11
    0.997530    1.01E+19       31.29
    0.998445    1.01E+19       31.77
    0.998446    9.74E+18       29.86
    0.998654    9.54E+18       28.22
    1.000161    9.42E+18       26.27
    1.000523    9.12E+18       25.15
    1.001021    9.28E+18       24.20
    1.001447    9.24E+18       23.27
    1.002741    8.87E+18       22.65
    1.002898    8.67E+18       21.15
    1.003829    8.39E+18       19.81
    1.004625    8.01E+18       19.10
    1.004771    7.73E+18       18.47
    1.004965    7.36E+18       17.09
    1.005435    7.24E+18       10.14
    1.005513    3.02E+18       15.95
    1.005560    1.23E+19       15.96
    1.005914    7.87E+18       12.19
    1.040380    3.25E+18        8.41
    1.040973    7.01E+18       12.30
    1.041069    2.92E+18        8.66
    1.041615    2.73E+18        8.17
    1.076096    3.86E+18        7.08
    1.109693    2.62E+18        7.29
{END}
