{NUMBER OF COLUMNS}       5
*
* SHOTS  =   25028
* TIMES  =     0.300000 to     0.324000 s
*
*       PSIn           r           z        dens          Te
*                    (m)         (m)       (m-3)        (eV)
{DATA LIST}
    0.169108    0.899634    0.000000    6.78E+19      359.19
    0.172107    0.889356    0.000000    6.51E+19      356.33
    0.172481    0.890046    0.000000    6.92E+19      418.98
    0.174623    0.893495    0.000000    7.18E+19      430.98
    0.176156    0.879077    0.000000    6.82E+19      381.24
    0.176489    0.879784    0.000000    7.16E+19      424.47
    0.178212    0.883319    0.000000    7.23E+19      415.81
    0.180141    0.890735    0.000000    7.17E+19      381.83
    0.180302    0.891425    0.000000    7.02E+19      386.35
    0.181250    0.868799    0.000000    6.50E+19      352.15
    0.181538    0.869523    0.000000    6.65E+19      417.82
    0.182820    0.873142    0.000000    7.24E+19      411.15
    0.183962    0.880491    0.000000    6.98E+19      372.14
    0.184007    0.881198    0.000000    6.79E+19      404.40
    0.185666    0.893151    0.000000    7.59E+19      379.44
    0.187392    0.858519    0.000000    6.51E+19      355.28
    0.187636    0.859260    0.000000    6.87E+19      435.10
    0.188468    0.862966    0.000000    7.12E+19      428.79
    0.188746    0.870970    0.000000    6.81E+19      375.96
    0.188823    0.870246    0.000000    6.73E+19      370.30
    0.189277    0.882965    0.000000    7.59E+19      389.36
    0.193909    0.872781    0.000000    7.48E+19      360.27
    0.194530    0.848241    0.000000    6.59E+19      363.29
    0.194533    0.860742    0.000000    6.76E+19      388.38
    0.194731    0.848998    0.000000    6.70E+19      406.46
    0.194733    0.860001    0.000000    6.71E+19      371.05
    0.195116    0.852789    0.000000    7.03E+19      408.67
    0.199584    0.862595    0.000000    7.49E+19      364.31
    0.201320    0.850515    0.000000    6.79E+19      380.39
    0.201644    0.849757    0.000000    6.72E+19      385.41
    0.202667    0.837963    0.000000    6.74E+19      377.88
    0.202731    0.842613    0.000000    7.05E+19      398.18
    0.202818    0.838737    0.000000    6.82E+19      392.77
    0.206261    0.852410    0.000000    7.32E+19      364.80
    0.209093    0.840287    0.000000    6.87E+19      371.09
    0.209544    0.839513    0.000000    6.85E+19      360.37
    0.211336    0.832442    0.000000    7.01E+19      414.95
    0.211807    0.827676    0.000000    6.49E+19      367.64
    0.211907    0.828470    0.000000    6.91E+19      398.32
    0.213907    0.842225    0.000000    7.36E+19      352.09
    0.217866    0.830058    0.000000    6.54E+19      370.31
    0.218448    0.829264    0.000000    6.83E+19      375.22
    0.220847    0.822308    0.000000    6.98E+19      396.04
    0.221909    0.817360    0.000000    6.30E+19      384.10
    0.221948    0.818184    0.000000    6.67E+19      401.47
    0.222545    0.832044    0.000000    7.30E+19      356.89
    0.227576    0.819834    0.000000    6.37E+19      369.56
    0.228298    0.819009    0.000000    6.45E+19      403.12
    0.231255    0.812173    0.000000    6.83E+19      428.45
    0.232093    0.821896    0.000000    7.39E+19      388.80
    0.232924    0.807899    0.000000    6.74E+19      399.79
    0.232959    0.807043    0.000000    6.50E+19      383.33
    0.238208    0.809609    0.000000    6.50E+19      363.68
    0.239077    0.808753    0.000000    6.66E+19      390.09
    0.242541    0.811746    0.000000    7.24E+19      360.05
    0.242590    0.802039    0.000000    6.73E+19      399.24
    0.244835    0.797613    0.000000    6.38E+19      381.00
    0.244942    0.796727    0.000000    6.29E+19      393.54
    0.249780    0.799383    0.000000    6.52E+19      356.93
    0.250794    0.798498    0.000000    6.14E+19      369.66
    0.253917    0.801597    0.000000    7.24E+19      393.35
    0.254793    0.791904    0.000000    6.91E+19      416.85
    0.257604    0.787326    0.000000    6.56E+19      368.74
    0.257783    0.786410    0.000000    6.53E+19      377.85
    0.262218    0.789157    0.000000    6.73E+19      356.47
    0.263376    0.788241    0.000000    6.45E+19      383.20
    0.266161    0.791446    0.000000    7.20E+19      372.15
    0.267813    0.781770    0.000000    7.06E+19      388.53
    0.271232    0.777040    0.000000    6.60E+19      376.37
    0.271497    0.776094    0.000000    6.15E+19      379.07
    0.275501    0.778932    0.000000    6.45E+19      355.63
    0.276809    0.777986    0.000000    6.28E+19      374.95
    0.279222    0.781297    0.000000    7.29E+19      378.12
    0.281690    0.771636    0.000000    7.18E+19      385.08
    0.285713    0.766754    0.000000    6.48E+19      361.40
    0.286062    0.765777    0.000000    6.18E+19      374.48
    0.289649    0.768706    0.000000    6.71E+19      356.77
    0.291102    0.767731    0.000000    6.34E+19      396.79
    0.293141    0.771147    0.000000    7.20E+19      375.58
    0.296351    0.761502    0.000000    7.09E+19      336.50
    0.300953    0.756468    0.000000    6.69E+19      335.75
    0.301386    0.755461    0.000000    6.31E+19      362.56
    0.304569    0.758482    0.000000    6.68E+19      356.53
    0.306167    0.757474    0.000000    6.38E+19      396.14
    0.307837    0.760999    0.000000    7.46E+19      378.41
    0.311738    0.751368    0.000000    7.09E+19      346.05
    0.316967    0.746182    0.000000    6.78E+19      341.34
    0.317498    0.745145    0.000000    6.02E+19      341.57
    0.320250    0.748256    0.000000    6.46E+19      339.82
    0.321995    0.747219    0.000000    6.28E+19      371.43
    0.323263    0.750849    0.000000    7.33E+19      346.87
    0.327897    0.741234    0.000000    6.83E+19      329.46
    0.333736    0.735896    0.000000    6.59E+19      310.23
    0.334363    0.734828    0.000000    6.06E+19      328.00
    0.336703    0.738031    0.000000    6.32E+19      322.92
    0.338591    0.736963    0.000000    6.12E+19      349.77
    0.339457    0.740700    0.000000    6.89E+19      340.03
    0.344744    0.731100    0.000000    6.74E+19      281.31
    0.351153    0.725610    0.000000    6.16E+19      309.67
    0.351873    0.724513    0.000000    5.87E+19      301.45
    0.353828    0.727806    0.000000    6.27E+19      309.09
    0.355845    0.726708    0.000000    5.89E+19      343.82
    0.356334    0.730550    0.000000    7.09E+19      324.23
    0.362213    0.720965    0.000000    6.54E+19      296.61
    0.369246    0.715323    0.000000    5.94E+19      284.61
    0.370077    0.714195    0.000000    5.48E+19      294.93
    0.371612    0.717579    0.000000    5.99E+19      309.10
    0.373768    0.716452    0.000000    5.75E+19      327.94
    0.373832    0.720400    0.000000    6.67E+19      316.98
    0.380355    0.710831    0.000000    6.39E+19      293.22
    0.387978    0.705037    0.000000    6.28E+19      279.82
    0.388913    0.703879    0.000000    5.73E+19      283.24
    0.390059    0.707355    0.000000    6.11E+19      293.57
    0.392000    0.710250    0.000000    5.88E+19      312.92
    0.392347    0.706196    0.000000    5.67E+19      310.37
    0.399076    0.700696    0.000000    6.26E+19      272.84
    0.407237    0.694751    0.000000    5.96E+19      262.05
    0.408278    0.693562    0.000000    5.22E+19      276.32
    0.409064    0.697129    0.000000    5.61E+19      265.63
    0.410733    0.700102    0.000000    6.56E+19      258.66
    0.411466    0.695940    0.000000    5.39E+19      285.64
    0.418302    0.690561    0.000000    6.21E+19      272.03
    0.427056    0.684466    0.000000    6.08E+19      259.60
    0.428217    0.683246    0.000000    5.79E+19      248.64
    0.428610    0.686904    0.000000    6.05E+19      274.78
    0.429972    0.689953    0.000000    6.47E+19      283.83
    0.431140    0.685684    0.000000    5.73E+19      273.20
    0.438088    0.680427    0.000000    6.07E+19      262.89
    0.447393    0.674180    0.000000    5.77E+19      246.41
    0.448665    0.672930    0.000000    5.47E+19      247.92
    0.448707    0.676679    0.000000    5.84E+19      262.39
    0.449770    0.679803    0.000000    5.97E+19      267.20
    0.451347    0.675429    0.000000    5.32E+19      271.01
    0.458332    0.670293    0.000000    6.39E+19      259.08
    0.468125    0.663894    0.000000    6.09E+19      251.63
    0.469231    0.666453    0.000000    5.83E+19      250.54
    0.469509    0.662614    0.000000    5.57E+19      248.06
    0.470013    0.669654    0.000000    6.36E+19      252.97
    0.471962    0.665174    0.000000    5.59E+19      267.64
    0.478956    0.660159    0.000000    6.50E+19      238.92
    0.489296    0.653608    0.000000    5.93E+19      224.57
    0.490175    0.656228    0.000000    5.94E+19      248.44
    0.490637    0.659504    0.000000    6.63E+19      257.07
    0.490807    0.652297    0.000000    5.47E+19      265.01
    0.493013    0.654918    0.000000    5.37E+19      252.30
    0.500022    0.650024    0.000000    6.20E+19      225.07
    0.510851    0.643321    0.000000    5.69E+19      229.21
    0.511541    0.646003    0.000000    5.73E+19      226.94
    0.511694    0.649354    0.000000    6.23E+19      229.54
    0.512478    0.641980    0.000000    5.38E+19      239.03
    0.514467    0.644662    0.000000    5.37E+19      259.83
    0.521416    0.639890    0.000000    6.24E+19      227.60
    0.532662    0.633035    0.000000    6.02E+19      222.02
    0.533067    0.639205    0.000000    6.47E+19      244.99
    0.533198    0.635777    0.000000    5.58E+19      232.72
    0.534407    0.631663    0.000000    5.34E+19      226.84
    0.536192    0.634406    0.000000    5.35E+19      239.77
    0.543059    0.629756    0.000000    6.00E+19      213.48
    0.554687    0.629056    0.000000    5.71E+19      211.97
    0.554783    0.622749    0.000000    5.67E+19      209.04
    0.555146    0.625552    0.000000    5.46E+19      213.03
    0.556653    0.621348    0.000000    5.14E+19      212.08
    0.558222    0.624150    0.000000    5.12E+19      221.46
    0.565013    0.619622    0.000000    5.81E+19      195.36
    0.576612    0.618906    0.000000    5.70E+19      198.45
    0.577146    0.612463    0.000000    5.27E+19      185.44
    0.577381    0.615326    0.000000    5.51E+19      209.37
    0.579133    0.611031    0.000000    5.15E+19      191.61
    0.580514    0.613895    0.000000    4.89E+19      222.21
    0.587164    0.609488    0.000000    5.42E+19      173.63
    0.598719    0.608757    0.000000    5.41E+19      185.58
    0.599628    0.602177    0.000000    5.17E+19      171.75
    0.599765    0.605101    0.000000    5.15E+19      189.32
    0.601731    0.600715    0.000000    4.94E+19      175.03
    0.602940    0.603639    0.000000    4.72E+19      189.11
    0.609431    0.599354    0.000000    5.01E+19      168.81
    0.620941    0.598607    0.000000    5.18E+19      177.72
    0.622286    0.591891    0.000000    4.65E+19      162.37
    0.622307    0.594877    0.000000    4.84E+19      168.15
    0.624515    0.590399    0.000000    4.57E+19      163.08
    0.625536    0.593384    0.000000    4.47E+19      170.35
    0.631878    0.589219    0.000000    4.89E+19      147.79
    0.643332    0.588457    0.000000    5.09E+19      174.33
    0.645001    0.584650    0.000000    4.52E+19      160.75
    0.645046    0.581604    0.000000    4.55E+19      152.54
    0.647388    0.580081    0.000000    4.35E+19      156.95
    0.648259    0.583127    0.000000    4.56E+19      166.45
    0.654389    0.579084    0.000000    4.60E+19      144.68
    0.665774    0.578307    0.000000    4.74E+19      146.21
    0.667703    0.574425    0.000000    4.31E+19      138.66
    0.667786    0.571319    0.000000    4.40E+19      133.04
    0.670242    0.569765    0.000000    4.01E+19      141.20
    0.670971    0.572872    0.000000    4.21E+19      163.87
    0.676883    0.568950    0.000000    4.46E+19      125.79
    0.688192    0.568159    0.000000    4.42E+19      139.58
    0.690433    0.564200    0.000000    4.32E+19      139.34
    0.690570    0.561033    0.000000    3.99E+19      121.75
    0.693145    0.559449    0.000000    4.08E+19      122.57
    0.693724    0.562616    0.000000    4.25E+19      143.46
    0.699420    0.558816    0.000000    4.29E+19      120.50
    0.710650    0.558009    0.000000    4.27E+19      133.78
    0.713172    0.553974    0.000000    4.09E+19      126.36
    0.713315    0.550747    0.000000    3.91E+19      112.34
    0.715991    0.549133    0.000000    3.90E+19      128.05
    0.716461    0.552360    0.000000    3.99E+19      132.34
    0.722781    0.548280    0.000000    3.99E+19      101.32
    0.733911    0.547457    0.000000    4.05E+19      119.91
    0.736679    0.543344    0.000000    3.93E+19      104.69
    0.736809    0.540053    0.000000    3.87E+19       94.45
    0.739593    0.538408    0.000000    3.65E+19      102.75
    0.739952    0.541698    0.000000    3.81E+19      119.36
    0.745993    0.537744    0.000000    3.74E+19       90.97
    0.757019    0.536905    0.000000    3.83E+19      104.05
    0.760083    0.532713    0.000000    3.67E+19       99.94
    0.760206    0.529359    0.000000    3.59E+19       87.29
    0.763101    0.527682    0.000000    3.44E+19       91.31
    0.763347    0.531035    0.000000    3.50E+19      107.53
    0.769107    0.527208    0.000000    3.64E+19       89.50
    0.780019    0.526353    0.000000    3.75E+19       94.90
    0.783340    0.522082    0.000000    3.46E+19       94.36
    0.783408    0.518665    0.000000    3.37E+19       83.08
    0.786392    0.516957    0.000000    3.44E+19       84.43
    0.786567    0.520373    0.000000    3.60E+19      105.53
    0.792002    0.516672    0.000000    3.65E+19       79.79
    0.802781    0.515802    0.000000    3.41E+19       86.15
    0.806319    0.511452    0.000000    3.45E+19       82.48
    0.806324    0.507972    0.000000    3.44E+19       77.02
    0.809408    0.506231    0.000000    3.37E+19       73.50
    0.809500    0.509712    0.000000    3.55E+19       97.54
    0.814628    0.506136    0.000000    3.51E+19       68.07
    0.825275    0.505250    0.000000    3.31E+19       73.74
    0.829013    0.497277    0.000000    3.38E+19       64.58
    0.829071    0.500821    0.000000    3.51E+19       72.63
    0.832185    0.495505    0.000000    3.22E+19       71.78
    0.832210    0.499049    0.000000    3.41E+19       84.74
    0.837018    0.495600    0.000000    3.21E+19       58.82
    0.847520    0.494698    0.000000    3.17E+19       59.45
    0.851358    0.486584    0.000000    3.09E+19       57.68
    0.851527    0.490190    0.000000    3.40E+19       63.56
    0.854595    0.488388    0.000000    3.33E+19       75.88
    0.854599    0.484780    0.000000    2.93E+19       57.87
    0.859057    0.485064    0.000000    3.42E+19       51.71
    0.869395    0.484147    0.000000    3.29E+19       57.75
    0.873313    0.475890    0.000000    3.22E+19       51.25
    0.873582    0.479560    0.000000    3.10E+19       57.88
    0.876582    0.477726    0.000000    3.16E+19       65.32
    0.876631    0.474055    0.000000    2.53E+19       52.23
    0.880719    0.474528    0.000000    2.93E+19       41.25
    0.890899    0.473594    0.000000    2.80E+19       49.78
    0.894907    0.465196    0.000000    3.13E+19       46.91
    0.895292    0.468928    0.000000    3.18E+19       43.98
    0.898217    0.467063    0.000000    2.82E+19       59.72
    0.898290    0.463329    0.000000    2.42E+19       38.76
    0.902011    0.463996    0.000000    2.78E+19       40.97
    0.912015    0.463046    0.000000    2.54E+19       39.82
    0.916044    0.454499    0.000000    2.46E+19       39.79
    0.916572    0.458297    0.000000    2.62E+19       36.79
    0.919408    0.456398    0.000000    2.34E+19       49.34
    0.919473    0.452599    0.000000    2.23E+19       24.53
    0.922831    0.453466    0.000000    2.52E+19       37.02
    0.932647    0.452500    0.000000    2.28E+19       33.25
    0.936703    0.443799    0.000000    2.01E+19       29.56
    0.940188    0.441866    0.000000    9.02E+18       42.27
    0.943188    0.442935    0.000000    1.97E+19       21.83
    0.952819    0.441951    0.000000    1.56E+19       22.60
    0.956884    0.433100    0.000000    1.20E+19       22.09
    0.957674    0.437034    0.000000    1.32E+19       21.40
    0.960330    0.435066    0.000000    1.38E+19       19.75
    0.960409    0.431132    0.000000    8.84E+18       10.48
    0.963069    0.432405    0.000000    1.16E+19       14.09
    0.972497    0.431405    0.000000    1.34E+19       17.73
    0.976500    0.422400    0.000000    8.44E+18       11.13
    0.977460    0.426402    0.000000    1.06E+19       15.38
    0.980002    0.424401    0.000000    1.18E+19       20.18
    0.980044    0.420399    0.000000    6.82E+18        9.08
    0.980339    0.423008    0.000000    1.16E+19       11.19
    0.989577    0.421993    0.000000    6.59E+18        7.36
    0.993515    0.412853    0.000000    7.40E+18       12.50
    0.994612    0.416915    0.000000    8.36E+18        9.51
    0.997054    0.414884    0.000000    9.75E+18       13.81
    0.997080    0.410822    0.000000    6.91E+18        9.31
    0.997154    0.413612    0.000000    8.35E+18       10.14
    1.006200    0.412581    0.000000    5.50E+18        8.69
    1.010083    0.403306    0.000000    7.64E+18        8.84
    1.011314    0.407428    0.000000    7.26E+18        7.55
    1.013533    0.404215    0.000000    9.09E+18        7.77
    1.013658    0.405367    0.000000    7.02E+18        7.73
    1.013660    0.401245    0.000000    8.08E+18        6.66
    1.022382    0.403169    0.000000    7.13E+18        7.62
    1.026188    0.393758    0.000000    7.87E+18        7.42
    1.027562    0.397941    0.000000    4.81E+18        5.36
    1.029464    0.394818    0.000000    7.58E+18        6.18
    1.029767    0.391668    0.000000    7.34E+18        7.53
    1.029805    0.395850    0.000000    5.99E+18        8.98
    1.038120    0.393757    0.000000    5.72E+18        6.97
    1.041816    0.384211    0.000000    7.52E+18        7.61
    1.043349    0.388454    0.000000    7.54E+18        7.87
    1.044935    0.385422    0.000000    7.33E+18        5.48
    1.045395    0.382090    0.000000    7.12E+18        4.88
    1.045486    0.386333    0.000000    5.46E+18        6.19
    1.053407    0.384346    0.000000    5.28E+18        6.06
    1.056979    0.374663    0.000000    7.52E+18        7.45
    1.058672    0.378967    0.000000    7.50E+18        5.65
    1.059955    0.376025    0.000000    7.23E+18        6.19
    1.060557    0.372512    0.000000    7.08E+18        5.76
    1.060705    0.376815    0.000000    7.80E+18        7.33
    1.068251    0.374934    0.000000    8.08E+18        7.35
    1.071694    0.365116    0.000000    6.03E+18        7.31
    1.073548    0.369479    0.000000    9.26E+18        6.93
    1.074539    0.366628    0.000000    6.47E+18        7.06
    1.075271    0.362935    0.000000    8.38E+18        6.09
    1.075477    0.367298    0.000000    6.42E+18        7.42
    1.082667    0.365522    0.000000    7.15E+18        5.53
    1.085970    0.355569    0.000000    7.83E+18        6.24
    1.087988    0.359993    0.000000    9.91E+18        6.03
    1.088697    0.357232    0.000000    8.53E+18        5.32
    1.089538    0.353357    0.000000    7.68E+18        7.23
    1.089816    0.357780    0.000000    6.96E+18        6.52
    1.096660    0.356111    0.000000    6.71E+18        6.31
    1.099800    0.346021    0.000000    8.01E+18        5.68
    1.101437    0.348520    0.000000    7.03E+18        5.62
    1.101988    0.350506    0.000000    9.52E+18        4.40
    1.103355    0.343780    0.000000    7.58E+18        6.65
    1.103709    0.348264    0.000000    7.52E+18        6.62
    1.109251    0.347385    0.000000    6.91E+18        6.15
    1.112232    0.337171    0.000000    7.26E+18        6.96
    1.113813    0.339808    0.000000    8.54E+18        5.52
    1.114580    0.341711    0.000000    7.51E+18        6.19
    1.115778    0.334901    0.000000    7.96E+18        5.47
    1.116205    0.339440    0.000000    5.99E+18        7.42
    1.121483    0.338660    0.000000    6.36E+18        5.94
    1.124304    0.328320    0.000000    7.31E+18        6.03
    1.125835    0.331097    0.000000    9.29E+18        5.26
    1.126811    0.332916    0.000000    8.30E+18        6.65
    1.127834    0.326022    0.000000    8.39E+18        5.21
    1.128339    0.330618    0.000000    7.31E+18        7.45
    1.133369    0.329934    0.000000    7.71E+18        5.44
    1.136007    0.319468    0.000000    7.71E+18        4.77
    1.137501    0.322386    0.000000    7.28E+18        5.24
    1.138683    0.324119    0.000000    8.69E+18        5.47
    1.139517    0.317143    0.000000    9.21E+18        4.22
    1.140110    0.321794    0.000000    7.25E+18        6.21
    1.144898    0.321209    0.000000    7.64E+18        5.62
    1.147346    0.310617    0.000000    8.28E+18        5.16
    1.148811    0.313675    0.000000    8.61E+18        3.44
    1.150189    0.315324    0.000000    7.74E+18        4.91
    1.150836    0.308264    0.000000    8.43E+18        4.91
    1.151518    0.312971    0.000000    6.84E+18        6.06
    1.156077    0.312484    0.000000    7.12E+18        4.97
    1.158335    0.301765    0.000000    9.25E+18        4.00
    1.159779    0.304962    0.000000    8.93E+18        4.29
    1.161341    0.306529    0.000000    8.89E+18        5.60
    1.161803    0.299384    0.000000    9.89E+18       12.92
    1.162575    0.304147    0.000000    7.69E+18        5.93
    1.166917    0.303758    0.000000    6.52E+18        4.76
    1.168967    0.292915    0.000000    8.98E+18        3.95
    1.170405    0.296251    0.000000    7.63E+18        5.35
    1.172148    0.297734    0.000000    9.65E+18        4.48
    1.172408    0.290505    0.000000    9.33E+18        3.72
    1.173282    0.295325    0.000000    7.00E+18        5.29
    1.175775    0.291737    0.000000    8.58E+18        3.99
    1.177419    0.295032    0.000000    6.70E+18        5.24
    1.179245    0.284064    0.000000    8.47E+18        4.65
    1.181054    0.287222    0.000000    8.77E+18        5.13
    1.182601    0.288939    0.000000    8.63E+18        3.70
    1.182658    0.281626    0.000000    8.74E+18        5.46
    1.182724    0.290511    0.000000    8.52E+18        4.10
    1.183637    0.286501    0.000000    7.99E+18        4.47
    1.184436    0.279477    0.000000    8.96E+18        3.93
    1.186241    0.282707    0.000000    8.90E+18        3.53
    1.187833    0.277025    0.000000    8.80E+18        4.67
    1.187883    0.284380    0.000000    7.79E+18        4.09
    1.187941    0.285989    0.000000    7.74E+18        4.29
    1.188866    0.281929    0.000000    8.87E+18        4.69
    1.192918    0.272423    0.000000    8.61E+18        3.01
    1.193067    0.281467    0.000000    8.40E+18        3.18
    1.193072    0.279822    0.000000    9.02E+18        3.72
    1.194006    0.277355    0.000000    7.12E+18        3.76
    1.194544    0.270303    0.000000    9.37E+18        2.81
    1.196349    0.273678    0.000000    6.06E+17        5.49
    1.197910    0.267821    0.000000    8.93E+18        2.63
    1.198106    0.276944    0.000000    6.51E+18        4.35
    1.198170    0.275265    0.000000    9.05E+18        3.65
    1.199054    0.272783    0.000000    7.37E+18        3.98
    1.199461    0.265715    0.000000    9.58E+18        3.25
    1.201272    0.269162    0.000000    8.72E+18        3.92
    1.202808    0.263219    0.000000    1.11E+19        2.05
    1.203056    0.272423    0.000000    1.80E+18       10.61
    1.203182    0.270705    0.000000    9.74E+18        2.82
    1.204012    0.268210    0.000000    8.95E+18        3.29
    1.206103    0.264648    0.000000    8.31E+18        3.10
    1.207919    0.267900    0.000000    5.04E+18        4.87
    1.208098    0.266148    0.000000    1.06E+19        2.96
    1.208876    0.263638    0.000000    1.19E+19        3.34
    1.209015    0.256541    0.000000    1.14E+19        2.05
    1.211937    0.259080    0.000000    7.70E+18        4.53
    1.212324    0.254016    0.000000    8.65E+18        2.53
    1.212692    0.263378    0.000000    7.83E+18        2.56
    1.212924    0.261589    0.000000    8.61E+18        2.57
    1.213650    0.259065    0.000000    1.00E+19        5.29
    1.213656    0.251954    0.000000    9.40E+18        3.32
    1.216944    0.249415    0.000000    7.84E+18        3.73
    1.217658    0.257031    0.000000    8.39E+18        7.44
    1.218207    0.247366    0.000000    1.51E+19        2.38
    1.218333    0.254492    0.000000    6.95E+18        5.68
    1.218454    0.257803    0.000000    9.28E+18        8.38
    1.219255    0.246297    0.000000    9.49E+18        5.42
    1.220299    0.245227    0.000000    8.48E+18        4.67
    1.222926    0.249919    0.000000    8.97E+18        2.96
    1.223983    0.248854    0.000000    9.28E+18        4.13
    1.224437    0.250348    0.000000    7.29E+18        5.05
    1.225036    0.247788    0.000000    8.64E+18        2.94
{END}
