{NUMBER OF COLUMNS}       4
*
* SHOTS  =   24861
* TIMES  =     0.230053 to     0.249813 s
*
*       PSIn        jsat        jsol          Te
*                (A m-2)       (A ?)        (eV)
{DATA LIST}
    0.926648    6.45E+02    6.45E+02        0.46
    0.926738    9.79E+02    8.39E+02        3.62
    0.927033    1.12E+03    1.12E+03        0.46
    0.927418    1.63E+03    1.51E+03        1.03
    0.927628    2.78E+02   -1.57E+02        4.10
    0.927802    9.30E+02    9.30E+02        0.45
    0.928187    1.17E+03    1.17E+03        0.49
    0.928519    9.92E+02    9.92E+02        0.50
    0.929409    1.20E+03   -5.87E+02        5.70
    0.930299    8.99E+02    8.98E+02        0.43
    0.931190    1.71E+03    7.27E+02        2.59
    0.932080    1.43E+03    1.43E+03        1.29
    0.932970    2.56E+03   -1.41E+03        7.05
    0.933861    2.67E+03   -3.80E+02        6.08
    0.934751    6.33E+02    6.33E+02        0.55
    0.935641    5.23E+02   -3.97E+02        5.48
    0.936532    1.13E+03    1.13E+03        0.47
    0.937422    1.79E+03    1.79E+03        0.44
    0.938250    1.72E+03   -1.89E+03        5.30
    0.938312    1.60E+03   -5.19E+02        5.00
    0.938342    1.79E+03    1.79E+03        0.50
    0.938623    3.52E+03    1.47E+03        7.64
    0.938996    5.31E+03   -1.84E+03        4.29
    0.939203    1.66E+03    1.66E+03        0.46
    0.939218    3.32E+03    6.62E+02        6.65
    0.939369    2.38E+03    2.38E+03        0.52
    0.939742    2.75E+03    6.38E+02        2.63
    0.940094    2.50E+03   -3.07E+03        5.77
    0.940969    3.10E+03    2.05E+03        5.81
    0.941845    1.92E+03    1.92E+03        0.40
    0.942721    2.41E+03   -3.91E+02        4.99
    0.943597    3.46E+03   -2.10E+02        5.98
    0.944473    3.95E+03   -1.18E+02        6.60
    0.945349    3.80E+03    1.55E+03        3.63
    0.945978    3.99E+03    4.57E+02        4.70
    0.946070    5.83E+03    6.86E+00        5.28
    0.946225    3.40E+03    3.40E+03        0.47
    0.946346    5.70E+03   -1.74E+03        7.63
    0.946713    5.53E+03    6.91E+02        7.18
    0.946936    2.89E+03    1.32E+03        2.47
    0.947080    2.84E+03   -7.62E+02        4.86
    0.947101    2.72E+03    2.72E+03        1.37
    0.947448    4.10E+03    1.90E+03        6.27
    0.947802    4.44E+03    4.44E+03        0.55
    0.947976    4.69E+03   -2.01E+03        7.09
    0.948669    2.35E+03   -2.53E+02        6.06
    0.948852    4.20E+03   -5.02E+02        6.56
    0.949535    2.80E+03    7.34E+01        7.43
    0.949728    7.06E+03   -2.17E+03        7.89
    0.950401    6.52E+03    6.52E+03        0.49
    0.950604    6.29E+03    3.37E+03        3.84
    0.951267    5.97E+03    5.97E+03        0.48
    0.952133    6.95E+03    4.96E+03        4.02
    0.953000    6.89E+03    3.91E+03        2.00
    0.953657    5.94E+03    1.57E+03        6.29
    0.953748    3.21E+03   -8.89E+02        6.95
    0.953866    5.28E+03    6.21E+02        4.53
    0.954021    1.01E+04   -5.10E+03       10.60
    0.954384    4.68E+03   -1.14E+02        6.93
    0.954604    8.52E+03   -8.30E+02       12.58
    0.954732    4.29E+03    2.48E+03        3.57
    0.954748    5.21E+03    1.57E+03        6.00
    0.955111    6.83E+03    5.42E+03        2.87
    0.955461    4.90E+03    8.89E+02        6.70
    0.955598    3.49E+03    6.89E+02        6.69
    0.956318    4.29E+03    4.29E+03        0.59
    0.956465    8.62E+03    8.61E+03        2.11
    0.957174    5.02E+03    2.23E+03        5.34
    0.957331    7.71E+03    3.04E+03        4.39
    0.958031    4.30E+03    4.30E+03        0.47
    0.958197    7.07E+03    4.06E+03        3.47
    0.958888    6.05E+03    6.05E+03        0.53
    0.959744    8.96E+03    2.16E+03        0.96
    0.960601    1.12E+04   -4.17E+03        9.28
    0.961248    8.99E+03    2.41E+02        5.89
    0.961337    3.26E+03   -9.64E+02        5.75
    0.961458    5.24E+03    1.67E+03        5.91
    0.961610    6.47E+03    3.33E+02        8.72
    0.961971    1.12E+04    4.14E+03        4.76
    0.962184    5.87E+03    1.12E+03        5.65
    0.962314    9.27E+03    2.86E+03        4.14
    0.962332    6.17E+03   -7.47E+02        6.04
    0.962693    7.94E+03   -1.45E+03        5.68
    0.963032    5.07E+03    3.58E+03        3.55
    0.963171    5.94E+03    1.65E+03        5.81
    0.963879    1.90E+03    1.89E+03        0.47
    0.964028    1.02E+04    2.04E+03        7.27
    0.964726    1.37E+04   -1.46E+03        6.63
    0.964884    8.99E+03    3.91E+03        6.11
    0.965573    6.13E+03    2.25E+03        5.07
    0.965741    8.75E+03    2.60E+03        5.13
    0.966421    9.26E+03    7.90E+03        3.44
    0.967268    9.50E+03    8.31E+03        2.74
    0.968115    1.81E+04    1.62E+04        1.93
    0.968714    1.58E+04    6.59E+03        4.71
    0.968799    7.56E+03   -7.27E+02        7.39
    0.968963    6.58E+03    3.98E+03        2.81
    0.969074    1.03E+04    1.31E+03        5.48
    0.969434    1.20E+04    1.56E+03        6.14
    0.969638    8.60E+03    8.14E+03        2.65
    0.969794    1.22E+04   -9.52E+02        7.00
    0.969810    1.09E+04    2.00E+03        5.01
    0.970155    1.02E+04    9.74E+02        2.62
    0.970476    3.62E+03    2.80E+03        3.93
    0.970657    1.21E+04    3.41E+03        5.84
    0.971314    1.31E+04    1.06E+04        3.18
    0.971505    1.52E+04    3.74E+03        4.06
    0.972152    2.53E+04    7.14E+03        3.73
    0.972352    2.61E+04    1.36E+04        3.34
    0.972990    1.10E+04    7.44E+03        2.83
    0.973199    1.46E+04    1.25E+04        2.89
    0.973829    1.61E+04    1.18E+04        2.25
    0.974667    1.34E+04    8.89E+03        2.69
    0.976015    3.75E+04    1.84E+04        2.97
    0.976097    7.91E+03    6.25E+03        3.44
    0.976343    7.76E+03    2.29E+03        4.22
    0.976375    2.23E+04    9.78E+02        3.83
    0.976736    1.46E+04    1.29E+04        3.73
    0.976927    1.19E+04    7.73E+03        4.44
    0.977096    1.56E+04    6.69E+03        3.62
    0.977756    1.51E+04    6.89E+03        4.58
    0.978020    1.43E+04    1.26E+04        2.99
    0.978586    2.54E+04    1.79E+04        2.49
    0.980245    2.67E+04    1.24E+04        4.00
    0.980534    3.15E+04    2.91E+04        2.80
    0.981074    2.42E+04    1.82E+04        4.32
    0.982733    3.27E+04    3.27E+04        0.43
    0.983192    2.43E+04   -1.25E+03        5.69
    0.983563    2.44E+04    1.74E+04        3.86
    0.983837    3.25E+04    2.23E+04        4.69
    0.984199    3.64E+04    3.18E+04        3.98
    0.984392    2.73E+04    2.72E+04        1.31
    0.984835    2.70E+04    1.96E+04        3.90
    0.985222    3.03E+04    2.35E+04        4.30
    0.985656    3.20E+04    2.98E+04        3.38
    0.986051    2.70E+04    8.87E+03       25.05
    0.986477    3.04E+04    2.96E+04        3.41
    0.986881    2.10E+04    2.06E+04        3.97
    0.987299    2.78E+04    2.47E+04        3.82
    0.987710    2.50E+04    2.48E+04        2.48
    0.988941    2.51E+04    2.28E+04        3.82
    0.989762    8.20E+03    5.92E+03        7.18
    0.990144    2.32E+04    1.89E+04        5.37
    0.990435    1.39E+04    1.36E+04        3.08
    0.990584    2.49E+04    2.42E+04        3.93
    0.990800    1.60E+04    1.48E+04        3.59
    0.990958    2.60E+04    2.57E+04        2.45
    0.991164    1.63E+04    7.86E+03       23.35
    0.991405    2.52E+04    2.06E+04        4.46
    0.991529    1.87E+04    1.70E+04        5.21
    0.991771    2.10E+04    1.81E+04        5.16
    0.992226    1.58E+04    1.58E+04        0.84
    0.992585    1.91E+04    1.77E+04        3.87
    0.993048    8.71E+03    7.76E+03        4.77
    0.993398    3.98E+03    3.98E+03        0.61
    0.993869    9.47E+03    7.21E+03        3.96
    0.994690    1.57E+04    1.41E+04        2.69
    0.995025    8.15E+03    5.72E+03        4.79
    0.996956    2.12E+04    8.14E+03        7.24
    0.997023    8.46E+03    8.32E+03        3.16
    0.997325    1.58E+04   -5.21E+03        3.03
    0.997465    1.08E+04    8.48E+03        5.03
    0.997695    1.82E+04    1.30E+04        2.86
    0.997829    6.35E+03    5.25E+03        3.74
    0.998065    9.83E+03    5.70E+03        4.87
    0.998279    7.77E+03    4.53E+03        5.88
    0.998435    1.38E+04    5.73E+03        6.95
    0.998635    8.40E+03    8.30E+03        1.54
    0.999092    9.65E+03    5.55E+03        4.55
    0.999441    6.42E+03    3.63E+03        4.05
    1.000247    2.10E+04    1.09E+04        3.74
    1.000719    2.43E+04   -9.20E+03        4.47
    1.001052    2.88E+04   -1.00E+04       11.69
    1.001532    1.27E+04    1.11E+04        1.74
    1.001858    3.37E+04    1.28E+04        3.69
    1.003814    1.21E+04    6.59E+03        5.79
    1.004276    1.45E+04    1.64E+03       19.46
    1.004612    1.65E+04    8.98E+03        3.57
    1.005082    3.67E+04    7.70E+03       18.38
    1.005261    3.45E+04    1.96E+03       16.44
    1.005410    2.37E+04    1.40E+04        3.69
    1.005887    4.14E+04    1.81E+03        4.31
    1.006209    3.51E+04    6.18E+03        4.31
    1.006693    3.71E+04   -1.36E+04        6.21
    1.007007    3.98E+04   -6.11E+03        3.21
    1.007806    2.11E+04   -9.31E+03        5.86
    1.010500    3.87E+04    7.51E+03        7.15
    1.010833    5.00E+04    5.65E+03       46.28
    1.012082    3.46E+04    1.79E+04        3.32
    1.012873    4.16E+04    3.25E+03       17.68
    1.013665    5.00E+04   -6.92E+02       29.75
    1.014193    3.90E+04   -2.72E+04        9.12
    1.015247    3.97E+04   -6.17E+03       14.55
    1.016039    3.99E+04   -2.12E+04        8.81
    1.016830    3.94E+04    5.93E+03       20.41
    1.017022    3.38E+04   -2.12E+04        8.50
    1.017066    5.00E+04    6.54E+03       42.01
    1.017418    3.36E+04    1.03E+04       12.74
    1.017621    3.31E+04   -1.30E+04        8.97
    1.017813    3.72E+04    2.24E+03       20.42
    1.017851    5.00E+04    7.76E+03       70.86
    1.018209    2.99E+04   -7.12E+04        3.41
    1.018604    2.77E+04   -8.21E+03        6.01
    1.018635    2.76E+04   -4.24E+02        4.72
    1.019204    4.22E+04   -5.44E+04        9.77
    1.019419    2.70E+04    2.11E+03        2.33
    1.019995    3.76E+04   -4.22E+03       11.15
    1.020204    2.46E+04    3.41E+03        4.63
    1.020787    2.18E+04   -8.03E+02        5.65
    1.020988    2.68E+04   -5.97E+03        4.34
    1.021578    3.06E+04   -7.44E+03       13.81
    1.022557    3.13E+04    4.44E+03       21.70
    1.023342    1.95E+04    1.01E+04        3.25
    1.023464    2.13E+04    3.87E+03        4.53
    1.023498    3.24E+04    4.43E+03       16.02
    1.023870    2.68E+04   -3.17E+04        4.03
    1.024126    2.44E+04    6.48E+03        4.33
    1.024276    2.25E+04    1.47E+04        2.99
    1.024276    2.44E+04    1.19E+03        5.94
    1.024682    2.47E+04    1.39E+04        4.03
    1.024910    2.71E+04    5.80E+03        6.05
    1.025054    2.28E+04    4.02E+03        3.39
    1.025088    2.06E+04    1.10E+04        3.06
    1.025831    2.11E+04    1.08E+04        3.77
    1.026479    2.58E+04   -3.69E+03        3.15
    1.026609    2.11E+04   -1.65E+03        6.55
    1.027264    2.06E+04   -1.29E+03        4.82
    1.027387    2.05E+04    5.18E+03        3.97
    1.028048    2.34E+04    3.45E+03        4.11
    1.028165    2.29E+04    9.85E+03        3.56
    1.028942    2.00E+04    5.03E+03        5.89
    1.029720    1.41E+04    2.39E+03        5.93
    1.029755    1.41E+04    5.94E+03        3.80
    1.029780    2.04E+04    8.33E+03        3.06
    1.030172    2.15E+04   -6.58E+02        2.96
    1.030498    2.59E+04    1.00E+04        3.11
    1.030551    2.11E+04    8.26E+03        2.95
    1.030590    1.80E+04    7.56E+03        4.99
    1.031007    2.00E+04   -3.86E+03       13.10
    1.031276    2.41E+04    4.91E+03        6.16
    1.031322    2.13E+04    4.64E+03        4.56
    1.031424    1.71E+04    3.58E+03        5.97
    1.032054    2.28E+04    1.02E+04        2.99
    1.032094    1.94E+04    4.88E+03        4.42
    1.032831    1.83E+04    5.22E+03        4.37
    1.032865    1.78E+04    6.65E+03        3.63
    1.033609    1.78E+04    5.19E+03        4.39
    1.033637    1.94E+04    1.36E+01        4.22
    1.034387    1.84E+04    3.45E+03        5.29
    1.034408    1.87E+04    6.25E+03        4.78
    1.035180    1.36E+04    1.94E+03        6.86
    1.035880    1.41E+04    8.34E+02        4.49
    1.035896    2.40E+04    1.11E+04        3.40
    1.035951    1.31E+04    6.47E+03        3.48
    1.036309    1.75E+04    3.72E+03        6.49
    1.036661    1.95E+04    2.33E+03        4.73
    1.036722    3.46E+04   -1.44E+04        6.76
    1.036738    1.54E+04    5.85E+03        5.90
    1.037167    1.71E+04    3.36E+03        6.35
    1.037426    1.76E+04   -7.09E+02        4.26
    1.037494    1.65E+04    2.75E+03        4.52
    1.037596    1.43E+04    3.77E+03        5.98
    1.038192    1.66E+04    1.32E+03        4.29
    1.038265    1.91E+04    9.55E+02        5.72
    1.038957    1.61E+04    5.73E+03        4.26
    1.039037    1.61E+04    1.09E+03        6.96
    1.039722    1.46E+04    1.42E+03        6.91
    1.039808    1.66E+04    4.90E+03        4.39
    1.040488    1.38E+04    5.05E+03        3.52
    1.040579    1.49E+04    7.96E+03        3.30
    1.041253    1.11E+04    4.18E+03        3.90
    1.041825    1.41E+04    7.83E+03        5.95
    1.041831    1.54E+04    1.03E+04        5.75
    1.042018    1.35E+04    4.48E+03        6.93
    1.042265    1.18E+04    3.48E+03        9.66
    1.042590    1.59E+04    9.24E+03        6.30
    1.042705    1.09E+04    6.27E+03        7.18
    1.042783    3.75E+04   -8.10E+03       17.71
    1.043145    1.56E+04    8.83E+03        6.25
    1.043350    1.36E+04    7.30E+03        6.40
    1.043549    1.31E+04    5.96E+03        4.11
    1.043585    1.39E+04    9.29E+03        6.32
    1.044109    1.43E+04    1.06E+04        3.96
    1.044314    1.64E+04    6.38E+03        3.85
    1.044869    1.45E+04    9.81E+03        4.14
    1.045079    1.52E+04    1.65E+03       10.40
    1.045628    1.32E+04    8.79E+03        6.17
    1.045844    1.53E+04    9.99E+02        8.34
    1.046388    1.33E+04    9.53E+03        4.22
    1.046610    1.26E+04    5.28E+03        5.34
    1.047147    1.12E+04    7.98E+03        5.73
    1.047570    1.50E+04    5.39E+03        8.34
    1.047573    1.08E+04    4.00E+03        8.46
    1.047906    1.00E+04    6.11E+03        5.08
    1.048023    1.20E+04    4.62E+03        9.14
    1.048324    1.48E+04    6.92E+03        7.63
    1.048474    1.21E+04    4.00E+03        9.58
    1.048666    1.71E+04    1.20E+04        4.96
    1.048925    1.31E+04    5.77E+03        8.77
    1.049078    1.32E+04    5.24E+03        7.68
    1.049376    1.12E+04    3.13E+03        9.22
    1.049425    1.39E+04    9.77E+03        5.97
    1.049832    1.28E+04    4.32E+03        9.11
    1.050185    1.49E+04    9.56E+03        5.90
    1.050586    1.29E+04    6.94E+03        6.89
    1.050944    1.31E+04    8.02E+03        5.10
    1.051339    1.22E+04    6.05E+03        7.79
    1.051703    1.06E+04    7.86E+03        8.08
    1.052093    1.13E+04    7.85E+03        5.36
    1.052463    1.23E+04    8.69E+03        5.59
    1.052847    9.45E+03    4.27E+03        5.19
    1.053601    7.53E+03    4.75E+03        4.80
    1.054355    1.88E+04    1.16E+04        2.41
    1.055108    1.25E+04    5.75E+03        6.54
    1.055810    1.30E+04    7.86E+03        7.77
    1.055825    8.62E+03    3.60E+03        8.80
    1.055862    1.38E+04    5.16E+03        9.21
    1.056292    9.61E+03    4.79E+03        6.17
    1.056556    1.06E+04    6.50E+03        6.57
    1.056616    1.21E+04    4.55E+03        9.95
    1.056758    1.02E+04    5.04E+03        6.85
    1.057225    8.60E+03    5.51E+03        6.27
    1.057302    1.12E+04    4.12E+03       10.10
    1.057370    1.05E+04    5.81E+03        5.56
    1.057691    8.83E+03    1.71E+03        9.88
    1.058048    1.06E+04    4.29E+03       10.23
    1.058124    1.13E+04    6.49E+03        5.36
    1.058467    1.48E+04    6.02E+03        7.92
    1.058487    7.10E+03    4.19E+03        5.11
    1.058794    1.09E+04    3.33E+03        9.27
    1.058959    9.08E+03    2.03E+03       10.68
    1.059210    1.08E+04    5.05E+03        9.35
    1.059431    9.41E+03    5.18E+03        6.01
    1.059540    9.27E+03    5.59E+03        5.76
    1.059903    8.39E+03    2.45E+03        9.31
    1.059954    1.00E+04    4.91E+03        9.60
    1.060286    1.01E+04    4.99E+03        6.21
    1.060375    8.75E+03    3.22E+03        9.42
    1.060697    1.07E+04    4.46E+03       10.00
    1.061032    8.17E+03    4.10E+03        6.52
    1.061441    9.71E+03    4.70E+03        8.71
    1.061778    7.12E+03    2.92E+03        7.86
    1.062184    9.60E+03    3.84E+03        9.34
    1.062523    1.97E+04    8.47E+03        8.24
    1.062928    9.85E+03    7.81E+03        7.14
    1.063269    8.98E+03    3.59E+03        9.41
    1.063652    2.42E+04    1.13E+04        5.56
    1.063671    8.29E+03    4.84E+03        5.85
    1.063681    7.39E+03    4.24E+03        5.82
    1.064016    1.08E+04    5.87E+03        5.78
    1.064164    8.85E+03    2.05E+03       10.64
    1.064391    9.94E+03    3.41E+03       10.08
    1.064415    6.90E+03    3.76E+03        9.07
    1.064648    9.76E+03    7.91E+03        4.71
    1.064761    9.52E+03    6.64E+03        5.42
    1.065130    1.02E+04    4.44E+03        9.43
    1.065131    7.78E+03    2.56E+03        9.37
    1.065158    1.93E+04    1.05E+04        5.52
    1.065507    7.65E+03    4.54E+03        5.47
    1.065614    8.82E+03    7.66E+03        3.92
    1.065869    9.47E+03    3.98E+03        9.40
    1.065902    8.12E+03    4.84E+03        4.97
    1.066253    9.01E+03    5.15E+03        4.86
    1.066607    9.11E+03    4.49E+03        9.21
    1.066646    9.58E+03    5.18E+03        4.77
    1.067346    9.23E+03    4.42E+03        8.79
    1.067389    8.96E+03    5.08E+03        4.88
    1.068085    9.39E+03    3.86E+03        9.00
    1.068133    7.73E+03    5.13E+03        5.00
    1.068671    1.92E+04    6.96E+03        7.44
    1.068708    5.82E+03    5.82E+03        1.83
    1.068824    8.87E+03    8.18E+03        5.47
    1.068876    8.05E+03    4.05E+03        7.14
    1.069203    7.71E+03    1.25E+03        9.46
    1.069405    8.60E+03    2.96E+03        9.10
    1.069563    6.90E+03    4.40E+03        4.65
    1.069699    7.91E+03    3.02E+03        9.49
    1.070140    8.18E+03    2.44E+03        8.92
    1.070194    6.82E+03    1.91E+03        9.98
    1.070302    1.70E+04    1.01E+04        5.09
    1.070689    7.70E+03    4.74E+03        5.01
    1.070874    8.46E+03    3.28E+03        8.92
    1.071041    7.90E+03    3.89E+03        9.28
    1.071608    8.27E+03    3.05E+03        9.30
    1.071779    9.43E+03    4.13E+03        9.83
    1.072343    8.27E+03    2.87E+03        9.24
    1.072518    9.46E+03    3.56E+03        8.05
    1.073077    7.93E+03    4.59E+03        5.57
    1.073257    7.22E+03    3.39E+03        9.19
    1.073529    1.62E+04    9.54E+03        6.01
    1.073575    6.15E+03    3.22E+03        9.03
    1.073812    7.94E+03    3.83E+03        9.08
    1.073996    7.12E+03    5.45E+03        3.74
    1.074082    7.78E+03    2.99E+03        8.41
    1.074259    8.32E+03    3.32E+03        9.52
    1.074546    6.80E+03    4.37E+03        4.32
    1.074589    8.08E+03    3.29E+03        9.43
    1.074989    7.97E+03    3.83E+03        9.09
    1.075097    7.76E+03    3.02E+03        9.38
    1.075281    1.32E+04    9.43E+03        4.59
    1.075604    8.63E+03    3.29E+03        8.93
    1.075719    7.32E+03    2.38E+03        8.82
    1.076015    6.69E+03    4.23E+03        6.35
    1.076450    7.57E+03    4.88E+03        5.29
    1.076749    7.39E+03    5.29E+03        4.45
    1.077180    7.65E+03    2.53E+03        7.40
    1.077484    7.07E+03    4.72E+03        4.15
    1.077910    7.29E+03    2.54E+03        7.56
    1.078218    6.25E+03    4.66E+03        3.69
    1.078233    1.61E+04    5.54E+03        7.46
    1.078288    5.76E+03    2.04E+03        7.88
    1.078641    7.41E+03    3.12E+03        7.28
    1.078807    6.79E+03    4.21E+03        7.00
    1.078953    6.33E+03    2.25E+03        7.61
    1.078959    7.15E+03    3.68E+03        8.99
    1.079326    7.48E+03    2.53E+03        9.45
    1.079371    7.29E+03    3.33E+03        7.32
    1.079685    7.37E+03    4.23E+03        4.40
    1.079845    7.34E+03    3.29E+03        8.30
    1.080101    1.37E+04    4.93E+03        9.45
    1.080364    8.48E+03    2.96E+03        7.41
    1.080412    6.95E+03    2.52E+03        7.65
    1.080831    6.53E+03    4.86E+03        3.76
    1.081138    6.56E+03    2.52E+03        7.63
    1.081562    6.73E+03    4.44E+03        4.22
    1.081864    7.15E+03    2.98E+03        7.66
    1.082292    5.83E+03    4.36E+03        3.22
    1.082591    6.55E+03    2.49E+03        7.43
    1.082789    1.18E+04    2.71E+03        9.91
    1.082853    5.80E+03    2.11E+03        7.69
    1.083022    6.32E+03    3.99E+03        3.80
    1.083317    6.84E+03    4.41E+03        5.84
    1.083384    6.03E+03    1.99E+03        7.84
    1.083512    6.49E+03    1.87E+03        8.61
    1.083753    6.05E+03    1.85E+03        7.89
    1.083915    6.94E+03    2.07E+03        9.33
    1.084043    6.52E+03    4.39E+03        3.64
    1.084234    7.12E+03    4.67E+03        4.07
    1.084446    6.51E+03    2.38E+03        8.08
    1.084770    1.07E+04    8.39E+03        4.12
    1.084957    5.77E+03    3.42E+03        4.07
    1.084977    7.81E+03    1.83E+03        9.15
    1.085014    1.09E+04    5.22E+03        7.19
    1.085082    4.94E+03    2.23E+03        5.03
    1.085496    6.23E+03    3.34E+03        5.39
    1.085619    5.73E+03    3.80E+03        4.80
    1.085679    6.19E+03    4.53E+03        3.74
    1.085734    6.45E+03    2.26E+03        9.26
    1.086156    6.60E+03    2.72E+03        9.39
    1.086222    6.28E+03    4.25E+03        3.90
    1.086402    6.24E+03    3.61E+03        3.98
    1.086455    6.27E+03    3.14E+03        5.55
    1.086692    6.62E+03    1.92E+03        9.48
    1.086949    6.06E+03    4.96E+03        3.11
    1.087124    6.47E+03    1.93E+03        7.45
    1.087176    5.72E+03    2.90E+03        5.38
    1.087204    1.05E+04    4.09E+03       10.49
    1.087229    7.42E+03    2.26E+03       10.08
    1.087277    5.13E+03    1.03E+03        9.93
    1.087675    5.89E+03    4.31E+03        3.57
    1.087819    5.70E+03    4.37E+02       10.57
    1.087847    6.83E+03    4.40E+03        4.31
    1.087897    5.96E+03    3.92E+03        4.62
    1.087923    6.07E+03    3.40E+03        6.10
    1.088361    5.75E+03    8.43E+02       10.14
    1.088401    5.82E+03    4.62E+03        2.81
    1.088570    5.74E+03    4.46E+03        3.04
    1.088617    5.88E+03    2.92E+03        5.27
    1.088642    5.63E+03    2.87E+03        5.15
    1.088904    6.37E+03    2.27E+03        9.41
    1.089292    1.13E+04    6.94E+03        5.60
    1.089338    5.95E+03    3.53E+03        7.08
    1.089360    1.03E+04    3.28E+02       13.98
    1.089361    4.90E+03    2.89E+03        4.72
    1.089437    5.42E+03    1.54E+03       12.90
    1.089446    6.35E+03    5.92E+02       10.56
    1.089985    5.66E+03    2.97E+03        5.42
    1.090015    5.82E+03    3.58E+03        4.41
    1.090059    6.33E+03    4.22E+03        5.35
    1.090077    6.09E+03    2.78E+03        5.64
    1.090080    5.76E+03    3.62E+03        4.98
    1.090533    5.22E+03    1.29E+03       12.91
    1.090737    6.06E+03    4.81E+03        2.87
    1.090780    5.37E+03    4.10E+03        5.54
    1.090794    5.39E+03    2.85E+03        5.33
    1.090799    5.90E+03    3.57E+03        5.00
    1.091081    5.98E+03    2.57E+03        6.08
    1.091460    5.16E+03    4.63E+03        2.26
    1.091483    9.40E+03    4.04E+03       13.77
    1.091501    8.62E+03    3.56E+03        7.10
    1.091512    5.40E+03    3.24E+03        5.07
    1.091518    5.92E+03    5.19E+03        3.66
    1.091565    5.24E+03    3.58E+03        5.08
    1.091629    6.06E+03    1.44E+03        9.95
    1.092118    5.31E+03    3.25E+03        5.44
    1.092182    5.51E+03    4.50E+03        3.26
    1.092199    5.30E+03    2.07E+03        6.85
    1.092221    5.34E+03    3.49E+03        4.20
    1.092229    5.56E+03    3.39E+03        5.53
    1.092237    5.91E+03    4.07E+03        5.34
    1.092671    5.12E+03    2.39E+03        5.12
    1.092905    5.46E+03    3.32E+03        3.17
    1.092914    5.13E+03    5.13E+03        1.79
    1.092942    5.36E+03    4.86E+03        2.58
    1.092946    5.33E+03    3.78E+03        5.22
    1.092956    4.99E+03    3.92E+03        3.64
    1.093225    5.93E+03    1.23E+03       13.74
    1.093574    8.18E+03    4.45E+03        7.05
    1.093630    5.26E+03    5.26E+03        1.83
    1.093660    6.47E+03    1.08E+02       17.81
    1.093663    5.19E+03    4.42E+03        3.15
    1.093663    5.92E+03    3.30E+03        4.82
    1.093675    8.49E+03    5.26E+03        5.40
    1.093778    5.72E+03    1.26E+03        8.97
    1.094218    4.86E+03    3.25E+03        5.82
    1.094288    5.19E+03    2.50E+03        5.39
    1.094345    5.80E+03    9.34E+02       13.00
    1.094381    5.34E+03    2.95E+03        5.38
    1.094383    5.44E+03    2.90E+03       12.55
    1.094393    5.61E+03    1.77E+03       12.53
    1.094777    5.05E+03   -5.35E+02       16.73
    1.095002    4.94E+03    2.06E+03        6.31
    1.095061    5.35E+03    2.60E+03        4.74
    1.095098    5.14E+03    3.72E+03        4.42
    1.095104    5.41E+03    8.51E+02       13.50
    1.095112    4.89E+03    3.43E+03        3.96
    1.095336    5.33E+03    5.15E+02       11.28
    1.095634    7.58E+03    1.58E+03        7.18
    1.095716    5.13E+03    1.58E+03        8.35
    1.095723    5.11E+03    2.80E+03        5.24
    1.095776    5.85E+03    3.91E+03        6.01
    1.095815    7.62E+03    4.88E+03        5.61
    1.095832    5.32E+03    3.41E+03        4.70
    1.095894    4.54E+03    2.39E+03        5.81
    1.096287    4.54E+03    2.80E+03        5.12
    1.096346    5.90E+03    3.03E+03        9.29
    1.096430    5.49E+03    3.53E+03        5.00
    1.096492    5.26E+03    3.23E+03        5.25
    1.096532    7.22E+03    2.13E+03       13.38
    1.096550    5.05E+03    3.55E+03        4.19
    1.096851    4.43E+03    2.22E+03        7.60
    1.097058    5.40E+03    1.26E+02        9.90
    1.097144    5.00E+03    1.24E+03        5.24
    1.097208    5.21E+03    1.40E+03       13.48
    1.097250    4.92E+03    1.66E+03        7.92
    1.097269    5.04E+03    3.69E+03        4.52
    1.097414    4.92E+03    2.50E+03        5.77
    1.097663    6.40E+03    2.11E+03        6.33
    1.097756    4.60E+03    2.73E+03        5.00
    1.097771    5.04E+03    3.33E+03        5.35
    1.097857    5.50E+03    3.78E+03        5.59
    1.097923    6.96E+03    3.97E+03        5.63
    1.097967    5.99E+03    2.78E+03        8.82
    1.097978    5.25E+03    2.78E+02       16.88
    1.098325    4.44E+03    3.64E+02        9.86
    1.098374    4.68E+03    1.53E+03        5.16
    1.098483    5.11E+03    2.41E+03        6.44
    1.098571    5.88E+03   -3.09E+02       22.04
    1.098639    5.75E+03    4.02E+03       10.80
    1.098684    4.90E+03    2.66E+03        8.04
    1.098893    4.54E+03    2.16E+03        4.91
    1.099084    4.84E+03    2.21E+03        7.18
    1.099195    5.08E+03    2.68E+03        5.15
    1.099285    4.24E+03    2.30E+03        5.22
    1.099354    5.09E+03    1.77E+03        8.33
    1.099401    4.72E+03    3.85E+03        3.62
    1.099462    4.24E+03    2.21E+03        5.76
    1.099795    5.40E+03   -1.53E+02       16.43
    1.099907    4.97E+03    1.23E+03        7.71
    1.099999    5.92E+03    3.37E+03        5.29
    1.100031    4.26E+03    4.22E+00       10.17
    1.100070    5.30E+03    3.53E+03        5.35
    1.100505    4.73E+03    1.20E+03       12.92
    1.100619    4.49E+03    2.54E+03        4.52
    1.100713    5.87E+03    2.51E+03        8.49
    1.100785    4.99E+03   -8.97E+02       16.94
    1.101216    4.75E+03    3.03E+03        4.87
    1.101331    4.46E+03    1.68E+03        8.68
    1.101426    4.52E+03    4.52E+03        0.48
    1.101501    4.48E+03    4.03E+03        4.08
    1.101926    4.86E+03   -3.51E+01       16.87
    1.102044    5.03E+03    8.56E+02        9.84
    1.102140    5.22E+03    1.39E+03       14.16
    1.102637    4.43E+03    2.03E+03        7.73
    1.102756    6.17E+03    1.73E+03       14.26
    1.102854    4.72E+03    1.59E+03       13.76
    1.103347    4.50E+03    1.40E+03       13.22
    1.103468    4.93E+03    2.13E+03       12.88
    1.103568    4.61E+03    1.86E+03       13.20
    1.104058    4.72E+03   -2.48E+02       18.66
    1.104180    4.57E+03    2.77E+03        5.80
    1.104768    5.73E+03    1.45E+03       14.30
    1.104892    4.16E+03    2.74E+03       10.06
    1.105479    5.30E+03    3.29E+02       17.58
    1.105604    4.35E+03    2.71E+03       11.09
    1.106189    4.40E+03    1.85E+03       13.27
    1.106900    3.84E+03    3.76E+02       10.81
    1.107610    3.83E+03    1.33E+03        7.52
{END}
